Time(s),Position(V)
0.338000,1.651227
3.352000,1.645992
6.350000,1.645197
9.350000,1.672664
12.350000,1.657122
15.351000,1.654746
18.351000,1.657853
21.351000,1.639581
24.349000,1.629331
27.349000,1.619401
30.349000,1.604906
33.349000,1.589908
36.347000,1.569538
39.348000,1.554676
42.348000,1.527528
45.348000,1.505506
48.348000,1.481244
51.348000,1.452658
54.346000,1.423453
57.346000,1.391301
60.347000,1.357813
63.347000,1.327687
66.347000,1.286054
69.345000,1.246800
72.345000,1.208594
75.345000,1.166481
78.345000,1.125201
81.346000,1.081855
84.346000,1.036693
87.344000,0.987278
90.344000,0.935698
93.344000,0.886168
96.344000,0.835992
99.344000,0.783250
102.342000,0.729596
105.343000,0.673654
108.343000,0.616224
111.343000,0.556397
114.343000,0.496570
117.341000,0.435576
120.341000,0.373812
123.341000,0.316021
126.342000,0.248504
129.342000,0.184985
132.340000,0.121487
135.340000,0.054310
138.340000,-0.010735
141.340000,-0.078589
144.340000,-0.143920
147.341000,-0.208448
150.339000,-0.276991
153.339000,-0.344590
156.339000,-0.414700
159.339000,-0.484328
162.339000,-0.554683
165.337000,-0.625783
168.338000,-0.694343
171.338000,-0.764138
174.337000,-0.831073
177.337000,-0.899351
180.337000,-0.967371
183.337000,-1.035333
186.337000,-1.104577
189.335000,-1.174466
192.336000,-1.244159
195.336000,-1.315819
198.336000,-1.388201
201.336000,-1.456186
204.334000,-1.524502
207.334000,-1.592556
210.334000,-1.652893
213.335000,-1.712451
216.335000,-1.771299
219.335000,-1.825579
222.333000,-1.884614
225.333000,-1.943740
228.333000,-2.004679
231.333000,-2.069690
234.333000,-2.137296
237.332000,-2.199975
240.332000,-2.258894
243.332000,-2.312742
246.332000,-2.360831
249.332000,-2.406101
252.330000,-2.448380
255.330000,-2.488728
258.331000,-2.534298
261.331000,-2.581612
264.331000,-2.631084
267.331000,-2.683501
270.329000,-2.732014
273.329000,-2.777523
276.329000,-2.818493
279.330000,-2.852705
282.330000,-2.887332
285.328000,-2.914171
288.328000,-2.939531
291.328000,-2.962739
294.328000,-2.983666
297.328000,-3.007146
300.326000,-3.028005
303.327000,-3.049425
306.327000,-3.070026
309.327000,-3.084902
312.327000,-3.100298
315.327000,-3.118927
318.325000,-3.133134
321.325000,-3.152167
324.326000,-3.162903
327.326000,-3.170790
330.325000,-3.177803
333.325000,-3.171000
336.325000,-3.182807
339.325000,-3.173360
342.323000,-3.169824
345.324000,-3.162556
348.324000,-3.161268
351.324000,-3.156383
354.324000,-3.138559
357.322000,-3.120464
360.322000,-3.107060
363.322000,-3.093561
366.323000,-3.076574
369.323000,-3.062728
372.321000,-3.040352
375.321000,-3.020612
378.321000,-3.000422
381.321000,-2.980447
384.321000,-2.960319
387.319000,-2.936709
390.320000,-2.913702
393.320000,-2.889481
396.320000,-2.864196
399.320000,-2.835728
402.320000,-2.803335
405.318000,-2.768824
408.318000,-2.732966
411.319000,-2.690558
414.319000,-2.643588
417.319000,-2.597868
420.317000,-2.554117
423.317000,-2.512528
426.317000,-2.470450
429.317000,-2.435360
432.318000,-2.395505
435.318000,-2.356863
438.316000,-2.318354
441.316000,-2.276497
444.316000,-2.229054
447.316000,-2.178970
450.316000,-2.125333
453.314000,-2.071594
456.315000,-2.013769
459.315000,-1.962618
462.315000,-1.907631
465.315000,-1.857680
468.313000,-1.807062
471.313000,-1.760819
474.313000,-1.708484
477.314000,-1.665297
480.314000,-1.615030
483.312000,-1.563079
486.312000,-1.507705
489.312000,-1.452841
492.312000,-1.397410
495.312000,-1.339190
498.313000,-1.278738
501.311000,-1.225101
504.311000,-1.172593
507.311000,-1.118545
510.311000,-1.067200
513.311000,-1.013022
516.309000,-0.964420
519.309000,-0.909716
522.310000,-0.858932
525.310000,-0.811693
528.310000,-0.762312
531.308000,-0.710464
534.308000,-0.661052
537.308000,-0.610873
540.308000,-0.559918
543.309000,-0.511303
546.309000,-0.465016
549.307000,-0.416886
552.307000,-0.374389
555.307000,-0.326454
558.307000,-0.285371
561.307000,-0.236868
564.306000,-0.193824
567.306000,-0.153775
570.306000,-0.116805
573.306000,-0.073884
576.306000,-0.033576
579.304000,0.002859
582.304000,0.030558
585.304000,0.066993
588.305000,0.105108
591.305000,0.138892
594.303000,0.170959
597.303000,0.200106
600.303000,0.231075
603.303000,0.263377
606.303000,0.287013
609.304000,0.310554
612.302000,0.340089
615.302000,0.364586
618.302000,0.385417
621.302000,0.407507
624.302000,0.424651
627.300000,0.437297
630.301000,0.456014
633.301000,0.474606
636.301000,0.484814
639.301000,0.498293
642.301000,0.508039
645.299000,0.513482
648.299000,0.522739
651.299000,0.536316
654.299000,0.534851
657.299000,0.545954
660.299000,0.545382
663.299000,0.546232
666.299000,0.549764
669.297000,0.545046
672.297000,0.550764
675.298000,0.536279
678.298000,0.525023
681.298000,0.517459
684.296000,0.515491
687.296000,0.500000
690.296000,0.488849
693.296000,0.476710
696.297000,0.460501
699.295000,0.442841
702.295000,0.426408
705.295000,0.406069
708.295000,0.388525
711.295000,0.370079
714.295000,0.350896
717.293000,0.328456
720.294000,0.306669
723.294000,0.279592
726.294000,0.255881
729.294000,0.229810
732.292000,0.205222
735.292000,0.177693
738.292000,0.149689
741.293000,0.119569
744.293000,0.091174
747.291000,0.057376
750.291000,0.025442
753.291000,-0.004589
756.291000,-0.040460
759.291000,-0.072871
762.290000,-0.109051
765.290000,-0.142529
768.290000,-0.178251
771.290000,-0.213510
774.290000,-0.250819
777.290000,-0.287825
780.288000,-0.326698
783.288000,-0.363514
786.289000,-0.404560
789.289000,-0.445251
792.289000,-0.483859
795.287000,-0.524894
798.287000,-0.564807
801.287000,-0.608575
804.287000,-0.649453
807.288000,-0.690298
810.288000,-0.731333
813.286000,-0.772408
816.286000,-0.809459
819.286000,-0.850831
822.286000,-0.891505
825.286000,-0.932931
828.285000,-0.971270
831.285000,-1.012363
834.285000,-1.053180
837.285000,-1.095524
840.285000,-1.136117
843.283000,-1.177179
846.283000,-1.218601
849.283000,-1.260755
852.284000,-1.302096
855.284000,-1.343243
858.282000,-1.385732
861.282000,-1.426604
864.282000,-1.464002
867.282000,-1.505009
870.282000,-1.542145
873.283000,-1.580423
876.281000,-1.614727
879.281000,-1.648089
882.281000,-1.682492
885.281000,-1.711414
888.281000,-1.743118
891.279000,-1.774457
894.280000,-1.800361
897.280000,-1.830702
900.280000,-1.858703
903.280000,-1.887921
906.278000,-1.916008
909.278000,-1.943282
912.278000,-1.970195
915.278000,-2.000223
918.279000,-2.026990
921.277000,-2.055807
924.277000,-2.081626
927.277000,-2.109580
930.277000,-2.131034
933.276000,-2.154497
936.276000,-2.179208
939.277000,-2.199288
942.277000,-2.218971
945.277000,-2.237566
948.275000,-2.256369
951.275000,-2.269854
954.275000,-2.286308
957.275000,-2.298484
960.276000,-2.310614
963.274000,-2.317117
966.274000,-2.328420
969.274000,-2.335545
972.274000,-2.344870
975.274000,-2.347573
978.272000,-2.351893
981.272000,-2.354858
984.273000,-2.356513
987.273000,-2.354681
990.273000,-2.361544
993.271000,-2.357434
996.271000,-2.362031
999.271000,-2.348164
1002.271000,-2.352985
1005.272000,-2.343585
1008.272000,-2.343656
1011.270000,-2.341120
1014.270000,-2.332680
1017.270000,-2.323114
1020.270000,-2.312956
1023.270000,-2.306480
1026.269000,-2.298525
1029.269000,-2.285036
1032.269000,-2.270656
1035.269000,-2.264745
1038.269000,-2.250355
1041.269000,-2.234354
1044.267000,-2.216935
1047.267000,-2.200866
1050.268000,-2.182005
1053.268000,-2.168401
1056.268000,-2.142629
1059.266000,-2.120866
1062.266000,-2.100932
1065.266000,-2.076265
1068.266000,-2.055345
1071.267000,-2.029352
1074.265000,-2.006314
1077.265000,-1.980234
1080.265000,-1.954830
1083.265000,-1.930197
1086.265000,-1.904517
1089.263000,-1.880425
1092.264000,-1.855528
1095.264000,-1.832123
1098.264000,-1.807116
1101.264000,-1.783395
1104.264000,-1.758018
1107.262000,-1.731893
1110.262000,-1.706594
1113.262000,-1.681635
1116.263000,-1.656126
1119.263000,-1.629997
1122.261000,-1.603172
1125.261000,-1.573281
1128.261000,-1.542091
1131.261000,-1.515527
1134.261000,-1.483787
1137.262000,-1.454194
1140.260000,-1.440178
1143.260000,-1.407112
1146.260000,-1.361780
1149.260000,-1.329318
1152.260000,-1.295922
1155.258000,-1.266153
1158.259000,-1.238288
1161.259000,-1.207149
1164.259000,-1.178559
1167.259000,-1.151119
1170.257000,-1.121928
1173.257000,-1.092390
1176.257000,-1.064609
1179.257000,-1.036016
1182.258000,-1.009528
1185.256000,-0.983610
1188.256000,-0.956578
1191.256000,-0.933414
1194.256000,-0.907279
1197.256000,-0.879777
1200.256000,-0.852697
1203.255000,-0.830312
1206.255000,-0.806607
1209.255000,-0.785201
1212.255000,-0.760901
1215.255000,-0.737992
1218.253000,-0.714458
1221.253000,-0.696434
1224.254000,-0.673698
1227.254000,-0.648950
1230.254000,-0.630712
1233.252000,-0.609581
1236.252000,-0.593910
1239.252000,-0.568737
1242.252000,-0.550356
1245.252000,-0.532570
1248.253000,-0.512020
1251.251000,-0.501920
1254.251000,-0.481234
1257.251000,-0.463666
1260.250000,-0.451540
1263.250000,-0.435750
1266.250000,-0.420700
1269.251000,-0.406334
1272.251000,-0.394409
1275.249000,-0.385591
1278.249000,-0.381063
1281.249000,-0.373009
1284.249000,-0.362192
1287.249000,-0.342604
1290.248000,-0.355774
1293.248000,-0.335279
1296.248000,-0.344726
1299.248000,-0.319328
1302.248000,-0.317285
1305.246000,-0.313457
1308.246000,-0.324757
1311.246000,-0.310133
1314.247000,-0.318978
1317.247000,-0.302436
1320.245000,-0.308270
1323.245000,-0.311479
1326.245000,-0.316191
1329.245000,-0.322857
1332.245000,-0.325148
1335.246000,-0.315963
1338.244000,-0.326967
1341.244000,-0.339270
1344.244000,-0.335554
1347.244000,-0.350046
1350.244000,-0.352572
1353.242000,-0.361835
1356.243000,-0.373519
1359.243000,-0.377299
1362.243000,-0.392135
1365.243000,-0.397009
1368.243000,-0.409897
1371.241000,-0.422376
1374.241000,-0.431041
1377.241000,-0.442576
1380.242000,-0.458088
1383.242000,-0.469737
1386.240000,-0.482795
1389.240000,-0.498837
1392.240000,-0.512795
1395.240000,-0.529381
1398.240000,-0.545957
1401.239000,-0.560857
1404.239000,-0.579744
1407.239000,-0.598193
1410.239000,-0.617040
1413.239000,-0.634288
1416.237000,-0.651802
1419.237000,-0.670833
1422.238000,-0.690040
1425.238000,-0.708662
1428.238000,-0.730293
1431.238000,-0.751141
1434.236000,-0.770495
1437.236000,-0.791333
1440.236000,-0.809582
1443.236000,-0.830138
1446.237000,-0.853326
1449.235000,-0.874912
1452.235000,-0.896210
1455.235000,-0.919452
1458.235000,-0.938931
1461.235000,-0.960541
1464.233000,-0.984973
1467.234000,-1.004068
1470.234000,-1.029357
1473.234000,-1.049016
1476.234000,-1.057045
1479.234000,-1.063436
1482.232000,-1.081872
1485.232000,-1.108228
1488.233000,-1.131011
1491.233000,-1.154576
1494.233000,-1.198534
1497.231000,-1.237917
1500.231000,-1.261220
1503.231000,-1.281923
1506.231000,-1.305624
1509.231000,-1.331548
1512.230000,-1.356823
1515.230000,-1.379821
1518.230000,-1.404222
1521.230000,-1.426713
1524.230000,-1.448453
1527.230000,-1.467891
1530.228000,-1.490619
1533.229000,-1.513722
1536.229000,-1.533857
1539.229000,-1.554716
1542.229000,-1.575008
1545.227000,-1.593905
1548.227000,-1.613061
1551.227000,-1.628366
1554.228000,-1.647811
1557.228000,-1.663740
1560.226000,-1.681091
1563.226000,-1.697130
1566.226000,-1.709480
1569.226000,-1.726053
1572.226000,-1.739678
1575.226000,-1.755703
1578.225000,-1.770541
1581.225000,-1.781508
1584.225000,-1.793522
1587.225000,-1.801109
1590.225000,-1.816482
1593.223000,-1.827170
1596.223000,-1.836831
1599.224000,-1.847964
1602.224000,-1.860821
1605.224000,-1.866535
1608.222000,-1.877434
1611.222000,-1.886296
1614.222000,-1.897192
1617.222000,-1.902855
1620.223000,-1.907274
1623.221000,-1.916752
1626.221000,-1.922626
1629.221000,-1.925326
1632.221000,-1.931349
1635.221000,-1.939216
1638.221000,-1.937761
1641.219000,-1.944176
1644.220000,-1.949537
1647.220000,-1.950760
1650.220000,-1.938662
1653.220000,-1.945025
1656.218000,-1.953395
1659.218000,-1.940300
1662.218000,-1.942853
1665.219000,-1.949220
1668.219000,-1.934368
1671.217000,-1.943509
1674.217000,-1.945280
1677.217000,-1.923401
1680.217000,-1.931043
1683.217000,-1.920413
1686.218000,-1.921936
1689.216000,-1.903977
1692.216000,-1.901550
1695.217000,-1.902978
1698.215000,-1.884651
1701.215000,-1.879593
1704.215000,-1.888707
1707.215000,-1.860430
1710.216000,-1.866726
1713.214000,-1.844687
1716.214000,-1.834849
1719.214000,-1.823454
1722.214000,-1.810638
1725.214000,-1.803509
1728.212000,-1.789636
1731.213000,-1.783514
1734.213000,-1.771446
1737.213000,-1.757161
1740.213000,-1.741955
1743.213000,-1.732620
1746.211000,-1.717415
1749.211000,-1.704803
1752.212000,-1.689750
1755.212000,-1.675924
1758.212000,-1.665399
1761.210000,-1.647243
1764.210000,-1.630891
1767.210000,-1.615832
1770.210000,-1.605508
1773.210000,-1.584115
1776.209000,-1.566329
1779.209000,-1.546520
1782.209000,-1.529904
1785.209000,-1.516085
1788.209000,-1.497758
1791.207000,-1.474571
1794.207000,-1.454371
1797.208000,-1.439866
1800.208000,-1.445267
1803.208000,-1.413064
1806.207000,-1.379297
1809.207000,-1.364921
1812.207000,-1.342957
1815.205000,-1.323104
1818.206000,-1.300301
1821.206000,-1.283205
1824.206000,-1.264365
1827.206000,-1.245964
1830.206000,-1.226488
1833.204000,-1.212166
1836.204000,-1.192742
1839.204000,-1.171281
1842.205000,-1.158767
1845.205000,-1.137409
1848.203000,-1.121554
1851.203000,-1.104284
1854.203000,-1.085829
1857.203000,-1.069011
1860.203000,-1.050277
1863.202000,-1.032399
1866.202000,-1.020440
1869.202000,-1.009263
1872.202000,-0.986935
1875.202000,-0.989342
1878.202000,-0.955340
1881.200000,-0.941267
1884.201000,-0.943218
1887.201000,-0.911348
1890.201000,-0.892770
1893.201000,-0.881640
1896.199000,-0.867043
1899.199000,-0.860873
1902.199000,-0.840612
1905.200000,-0.839337
1908.200000,-0.817795
1911.198000,-0.806339
1914.198000,-0.796113
1917.198000,-0.784701
1920.198000,-0.776131
1923.198000,-0.787533
1926.197000,-0.756411
1929.198000,-0.759926
1932.197000,-0.737251
1935.197000,-0.728012
1938.197000,-0.719805
1941.197000,-0.712201
1944.195000,-0.728487
1947.195000,-0.709267
1950.196000,-0.693966
1953.196000,-0.691841
1956.196000,-0.705089
1959.194000,-0.676421
1962.194000,-0.670227
1965.194000,-0.667277
1968.194000,-0.690131
1971.195000,-0.668725
1974.195000,-0.658353
1977.193000,-0.678832
1980.193000,-0.672138
1983.192000,-0.658676
1986.192000,-0.676245
1989.192000,-0.660423
1992.192000,-0.661885
1995.193000,-0.678403
1998.191000,-0.671883
2001.191000,-0.681085
2004.191000,-0.688387
2007.191000,-0.690954
2010.191000,-0.686827
2013.191000,-0.698117
2016.190000,-0.697913
2019.190000,-0.692249
2022.190000,-0.696672
2025.190000,-0.712796
2028.190000,-0.720179
2031.188000,-0.720944
2034.188000,-0.727206
2037.189000,-0.735650
2040.189000,-0.742687
2043.189000,-0.751114
2046.189000,-0.757267
2049.187000,-0.763118
2052.187000,-0.772412
2055.187000,-0.781781
2058.187000,-0.789266
2061.188000,-0.795991
2064.186000,-0.802735
2067.186000,-0.812152
2070.186000,-0.822415
2073.186000,-0.832875
2076.186000,-0.842431
2079.184000,-0.851983
2082.185000,-0.863334
2085.185000,-0.873947
2088.185000,-0.883115
2091.185000,-0.893290
2094.183000,-0.906347
2097.183000,-0.920027
2100.183000,-0.925847
2103.184000,-0.941827
2106.184000,-0.951818
2109.184000,-0.961945
2112.182000,-0.974948
2115.182000,-0.989940
2118.182000,-0.999894
2121.182000,-1.012699
2124.182000,-1.026600
2127.181000,-1.036754
2130.181000,-1.050420
2133.181000,-1.060662
2136.181000,-1.075640
2139.180000,-1.089371
2142.180000,-1.102129
2145.180000,-1.115560
2148.181000,-1.127421
2151.179000,-1.138755
2154.179000,-1.153621
2157.179000,-1.167847
2160.179000,-1.179718
2163.179000,-1.191800
2166.179000,-1.205969
2169.178000,-1.218448
2172.178000,-1.232148
2175.178000,-1.245393
2178.178000,-1.260473
2181.178000,-1.274261
2184.176000,-1.287920
2187.176000,-1.298292
2190.176000,-1.312311
2193.177000,-1.324263
2196.177000,-1.336338
2199.175000,-1.351656
2202.175000,-1.365173
2205.175000,-1.375979
2208.175000,-1.387568
2211.175000,-1.400796
2214.174000,-1.413054
2217.175000,-1.424357
2220.175000,-1.436306
2223.173000,-1.447086
2226.173000,-1.454867
2229.173000,-1.464712
2232.173000,-1.472827
2235.174000,-1.486258
2238.172000,-1.493917
2241.172000,-1.506832
2244.172000,-1.516098
2247.172000,-1.525423
2250.172000,-1.533222
2253.172000,-1.539378
2256.170000,-1.549471
2259.171000,-1.556933
2262.171000,-1.566145
2265.171000,-1.575579
2268.171000,-1.577693
2271.169000,-1.584407
2274.169000,-1.591587
2277.169000,-1.598467
2280.170000,-1.599756
2283.170000,-1.608278
2286.168000,-1.609522
2289.168000,-1.615373
2292.168000,-1.623171
2295.168000,-1.625303
2298.168000,-1.627434
2301.169000,-1.629022
2304.167000,-1.633679
2307.167000,-1.634328
2310.167000,-1.638479
2313.167000,-1.641110
2316.167000,-1.627461
2319.165000,-1.621257
2322.165000,-1.638278
2325.166000,-1.643758
2328.166000,-1.642586
2331.166000,-1.631571
2334.166000,-1.622937
2337.164000,-1.635216
2340.164000,-1.641110
2343.164000,-1.619106
2346.165000,-1.633302
2349.165000,-1.619806
2352.163000,-1.629504
2355.163000,-1.622189
2358.163000,-1.603196
2361.163000,-1.617569
2364.163000,-1.614584
2367.162000,-1.595721
2370.162000,-1.597635
2373.162000,-1.589619
2376.162000,-1.583313
2379.162000,-1.574919
2382.160000,-1.586613
2385.160000,-1.572917
2388.160000,-1.556440
2391.161000,-1.569813
2394.161000,-1.560468
2397.161000,-1.535938
2400.159000,-1.531814
2403.159000,-1.526120
2406.159000,-1.515296
2409.159000,-1.507746
2412.160000,-1.498459
2415.158000,-1.492200
2418.158000,-1.478344
2421.158000,-1.474329
2424.158000,-1.458423
2427.158000,-1.454799
2430.156000,-1.445638
2433.157000,-1.435966
2436.157000,-1.432594
2439.157000,-1.414081
2442.157000,-1.407302
2445.155000,-1.396587
2448.155000,-1.383173
2451.155000,-1.376704
2454.155000,-1.369721
2457.156000,-1.353053
2460.156000,-1.341077
2463.154000,-1.327292
2466.154000,-1.314422
2469.154000,-1.302133
2472.154000,-1.296558
2475.154000,-1.279564
2478.153000,-1.271732
2481.153000,-1.257835
2484.153000,-1.249200
2487.153000,-1.241177
2490.153000,-1.227658
2493.151000,-1.216378
2496.151000,-1.201631
2499.152000,-1.196182
2502.152000,-1.178902
2505.152000,-1.172760
2508.152000,-1.163931
2511.150000,-1.151153
2514.150000,-1.132887
2517.150000,-1.126109
2520.150000,-1.109700
2523.151000,-1.102806
2526.149000,-1.088113
2529.149000,-1.078282
2532.149000,-1.066588
2535.149000,-1.061257
2538.149000,-1.047846
2541.147000,-1.038447
2544.148000,-1.025060
2547.148000,-1.036108
2550.148000,-1.008056
2553.148000,-1.000645
2556.148000,-0.988087
2559.146000,-0.985422
2562.146000,-0.981985
2565.147000,-0.963298
2568.147000,-0.953188
2571.147000,-0.954847
2574.145000,-0.936331
2577.145000,-0.942062
2580.145000,-0.920618
2583.145000,-0.934498
2586.145000,-0.911042
2589.144000,-0.902611
2592.144000,-0.895489
2595.144000,-0.912606
2598.144000,-0.884275
2601.143000,-0.880297
2604.143000,-0.872098
2607.143000,-0.870745
2610.144000,-0.865142
2613.142000,-0.866638
2616.142000,-0.853343
2619.142000,-0.844195
2622.142000,-0.851262
2625.141000,-0.843828
2628.141000,-0.859408
2631.142000,-0.834636
2634.142000,-0.831698
2637.140000,-0.842067
2640.140000,-0.841190
2643.141000,-0.827793
2646.140000,-0.833412
2649.140000,-0.829159
2652.138000,-0.828877
2655.139000,-0.833633
2658.139000,-0.842369
2661.139000,-0.850440
2664.139000,-0.843379
