Time(s),Position(V)
0.351000,1.615560
3.366000,1.604580
6.366000,1.590798
9.365000,1.574807
12.365000,1.559105
15.365000,1.539711
18.365000,1.515898
21.365000,1.492258
24.363000,1.468608
27.363000,1.443853
30.364000,1.412503
33.364000,1.378845
36.364000,1.342345
39.364000,1.312148
42.362000,1.275376
45.362000,1.238067
48.362000,1.198793
51.362000,1.160250
54.363000,1.120218
57.361000,1.080760
60.361000,1.035734
63.361000,0.987941
66.361000,0.943510
69.361000,0.893107
72.359000,0.843961
75.360000,0.793846
78.360000,0.743357
81.360000,0.689700
84.359000,0.634312
87.359000,0.579102
90.359000,0.522909
93.359000,0.467361
96.358000,0.408942
99.358000,0.352633
102.358000,0.294108
105.358000,0.232639
108.358000,0.173838
111.356000,0.112182
114.356000,0.051798
117.356000,-0.009665
120.357000,-0.070943
123.357000,-0.133014
126.357000,-0.192899
129.355000,-0.255395
132.355000,-0.318356
135.355000,-0.380838
138.355000,-0.444038
141.356000,-0.506132
144.354000,-0.568801
147.354000,-0.632157
150.354000,-0.694789
153.354000,-0.755891
156.354000,-0.814130
159.354000,-0.873485
162.354000,-0.933730
165.354000,-0.992432
168.352000,-1.051402
171.352000,-1.110254
174.352000,-1.167293
177.352000,-1.226729
180.352000,-1.283205
183.350000,-1.341580
186.351000,-1.401509
189.351000,-1.456768
192.351000,-1.511329
195.351000,-1.563222
198.351000,-1.615342
201.349000,-1.663098
204.349000,-1.707407
207.350000,-1.753660
210.350000,-1.796476
213.350000,-1.840427
216.348000,-1.883366
219.348000,-1.924700
222.349000,-1.968764
225.348000,-2.011662
228.349000,-2.055345
231.347000,-2.101758
234.347000,-2.145723
237.347000,-2.185493
240.347000,-2.220355
243.347000,-2.258578
246.347000,-2.289850
249.345000,-2.318001
252.346000,-2.344398
255.346000,-2.370699
258.346000,-2.391021
261.346000,-2.411931
264.344000,-2.432903
267.344000,-2.450848
270.344000,-2.469474
273.345000,-2.483687
276.345000,-2.498662
279.343000,-2.511440
282.343000,-2.526714
285.343000,-2.541532
288.343000,-2.536552
291.343000,-2.556558
294.342000,-2.569262
297.342000,-2.568014
300.342000,-2.575592
303.342000,-2.571869
306.342000,-2.577080
309.342000,-2.580990
312.340000,-2.559308
315.340000,-2.556650
318.341000,-2.550402
321.341000,-2.545741
324.341000,-2.540553
327.339000,-2.521992
330.339000,-2.512851
333.339000,-2.498845
336.339000,-2.484149
339.340000,-2.474281
342.340000,-2.461400
345.339000,-2.442540
348.339000,-2.427606
351.337000,-2.415249
354.337000,-2.398469
357.337000,-2.370152
360.338000,-2.351618
363.338000,-2.329668
366.338000,-2.304070
369.336000,-2.279774
372.336000,-2.247224
375.336000,-2.217621
378.336000,-2.184800
381.336000,-2.151804
384.335000,-2.112289
387.335000,-2.075167
390.335000,-2.032062
393.335000,-1.991435
396.335000,-1.952627
399.333000,-1.913393
402.333000,-1.873786
405.334000,-1.833656
408.334000,-1.795623
411.334000,-1.758388
414.332000,-1.718145
417.332000,-1.682662
420.332000,-1.643089
423.332000,-1.603577
426.333000,-1.563086
429.333000,-1.516139
432.331000,-1.472035
435.331000,-1.428834
438.331000,-1.378152
441.331000,-1.330331
444.331000,-1.280094
447.329000,-1.232937
450.330000,-1.185140
453.330000,-1.140036
456.330000,-1.093287
459.330000,-1.046806
462.328000,-1.000693
465.329000,-0.954280
468.329000,-0.907316
471.328000,-0.864364
474.328000,-0.819352
477.328000,-0.772606
480.328000,-0.729198
483.328000,-0.683237
486.326000,-0.638596
489.326000,-0.593060
492.327000,-0.547364
495.327000,-0.502039
498.327000,-0.457085
501.327000,-0.415876
504.325000,-0.374342
507.325000,-0.330115
510.325000,-0.286588
513.325000,-0.241576
516.326000,-0.205664
519.324000,-0.163252
522.324000,-0.128907
525.325000,-0.090048
528.323000,-0.053470
531.323000,-0.014376
534.323000,0.021019
537.324000,0.060062
540.324000,0.095392
543.322000,0.128347
546.322000,0.159673
549.322000,0.188575
552.322000,0.217059
555.322000,0.245713
558.321000,0.275931
561.321000,0.305122
564.321000,0.335354
567.321000,0.355285
570.321000,0.386454
573.321000,0.412076
576.319000,0.435600
579.319000,0.458808
582.320000,0.481262
585.320000,0.494958
588.320000,0.515494
591.318000,0.536523
594.318000,0.554238
597.318000,0.558804
600.318000,0.576069
603.319000,0.591683
606.317000,0.601297
609.317000,0.599655
612.318000,0.618784
615.316000,0.626925
618.316000,0.630736
621.316000,0.635978
624.317000,0.645874
627.317000,0.642471
630.315000,0.639898
633.315000,0.643498
636.315000,0.633126
639.315000,0.630267
642.315000,0.625637
645.313000,0.624495
648.314000,0.614776
651.314000,0.607042
654.314000,0.601885
657.314000,0.585751
660.314000,0.575978
663.312000,0.566068
666.312000,0.551736
669.313000,0.539032
672.313000,0.526815
675.313000,0.509052
678.311000,0.493099
681.311000,0.476333
684.311000,0.456959
687.311000,0.434455
690.312000,0.413385
693.310000,0.391655
696.310000,0.369753
699.310000,0.354244
702.310000,0.324890
705.310000,0.299557
708.310000,0.272980
711.308000,0.246998
714.309000,0.218256
717.309000,0.189986
720.309000,0.161542
723.309000,0.131838
726.307000,0.102354
729.307000,0.071627
732.307000,0.040243
735.308000,0.011123
738.308000,-0.020774
741.308000,-0.053188
744.306000,-0.086744
747.306000,-0.121588
750.306000,-0.153934
753.306000,-0.188799
756.307000,-0.224041
759.305000,-0.258794
762.305000,-0.294767
765.305000,-0.331209
768.305000,-0.368155
771.305000,-0.404488
774.303000,-0.443269
777.303000,-0.479708
780.304000,-0.517140
783.304000,-0.556274
786.304000,-0.598094
789.302000,-0.636750
792.302000,-0.672577
795.302000,-0.711075
798.302000,-0.749027
801.303000,-0.785551
804.303000,-0.819695
807.301000,-0.856083
810.301000,-0.892491
813.301000,-0.928253
816.301000,-0.962085
819.301000,-0.997351
822.300000,-1.033739
825.300000,-1.067873
828.300000,-1.102462
831.300000,-1.137143
834.300000,-1.170655
837.298000,-1.205296
840.298000,-1.241310
843.298000,-1.273387
846.299000,-1.305284
849.299000,-1.339561
852.299000,-1.373902
855.297000,-1.404436
858.297000,-1.435589
861.297000,-1.462394
864.297000,-1.491921
867.298000,-1.523587
870.296000,-1.527164
873.296000,-1.572618
876.296000,-1.598699
879.296000,-1.621805
882.296000,-1.645217
885.294000,-1.664363
888.295000,-1.686585
891.295000,-1.704463
894.295000,-1.724564
897.295000,-1.738896
900.295000,-1.758936
903.293000,-1.775766
906.293000,-1.787535
909.293000,-1.803275
912.294000,-1.818042
915.294000,-1.828981
918.292000,-1.841726
921.292000,-1.853916
924.292000,-1.863119
927.292000,-1.874796
930.292000,-1.882605
933.291000,-1.891025
936.292000,-1.900666
939.292000,-1.903810
942.290000,-1.908481
945.290000,-1.916667
948.290000,-1.905085
951.290000,-1.917762
954.291000,-1.909277
957.289000,-1.913499
960.289000,-1.922681
963.289000,-1.906571
966.289000,-1.907336
969.289000,-1.907387
972.289000,-1.896977
975.287000,-1.902906
978.288000,-1.896179
981.288000,-1.890967
984.288000,-1.878923
987.288000,-1.878841
990.286000,-1.859509
993.286000,-1.852859
996.286000,-1.842076
999.287000,-1.838388
1002.287000,-1.817610
1005.285000,-1.808921
1008.285000,-1.795252
1011.285000,-1.784860
1014.285000,-1.771983
1017.285000,-1.754377
1020.284000,-1.738865
1023.284000,-1.723360
1026.284000,-1.705105
1029.284000,-1.693136
1032.284000,-1.679021
1035.284000,-1.659800
1038.282000,-1.639373
1041.282000,-1.622128
1044.283000,-1.603750
1047.283000,-1.580083
1050.283000,-1.560128
1053.281000,-1.538528
1056.281000,-1.516799
1059.281000,-1.492057
1062.281000,-1.464427
1065.282000,-1.444285
1068.282000,-1.431268
1071.280000,-1.392460
1074.280000,-1.365509
1077.280000,-1.340802
1080.280000,-1.311339
1083.280000,-1.282457
1086.279000,-1.258273
1089.279000,-1.232954
1092.279000,-1.207101
1095.279000,-1.179494
1098.279000,-1.154260
1101.277000,-1.130470
1104.277000,-1.100796
1107.278000,-1.078183
1110.278000,-1.048965
1113.278000,-1.022677
1116.276000,-1.002229
1119.276000,-0.974914
1122.276000,-0.947576
1125.276000,-0.921346
1128.276000,-0.894208
1131.277000,-0.871812
1134.275000,-0.847679
1137.275000,-0.823887
1140.275000,-0.798163
1143.275000,-0.772283
1146.275000,-0.748860
1149.273000,-0.726815
1152.274000,-0.702516
1155.274000,-0.678539
1158.274000,-0.654226
1161.274000,-0.633425
1164.272000,-0.607875
1167.272000,-0.587825
1170.272000,-0.559551
1173.273000,-0.542149
1176.273000,-0.517296
1179.273000,-0.498813
1182.271000,-0.475935
1185.271000,-0.460294
1188.271000,-0.438751
1191.271000,-0.417648
1194.271000,-0.402605
1197.270000,-0.384394
1200.270000,-0.368556
1203.270000,-0.347663
1206.270000,-0.335758
1209.270000,-0.312907
1212.268000,-0.299401
1215.268000,-0.284470
1218.269000,-0.272817
1221.269000,-0.257016
1224.269000,-0.254545
1227.267000,-0.231847
1230.267000,-0.220292
1233.267000,-0.208037
1236.267000,-0.196560
1239.268000,-0.192981
1242.268000,-0.185692
1245.266000,-0.180488
1248.266000,-0.159363
1251.266000,-0.173916
1254.266000,-0.148991
1257.266000,-0.141751
1260.264000,-0.154104
1263.265000,-0.139793
1266.265000,-0.133714
1269.265000,-0.141441
1272.265000,-0.141577
1275.265000,-0.127089
1278.263000,-0.143433
1281.263000,-0.135496
1284.264000,-0.130934
1287.264000,-0.148920
1290.264000,-0.130526
1293.262000,-0.144460
1296.262000,-0.132321
1299.262000,-0.151368
1302.262000,-0.157031
1305.263000,-0.155287
1308.261000,-0.162562
1311.261000,-0.175106
1314.261000,-0.181008
1317.261000,-0.187297
1320.261000,-0.194262
1323.261000,-0.201330
1326.259000,-0.212874
1329.260000,-0.215424
1332.260000,-0.229566
1335.260000,-0.239322
1338.260000,-0.248110
1341.258000,-0.264315
1344.258000,-0.273041
1347.258000,-0.278739
1350.259000,-0.296800
1353.259000,-0.311037
1356.257000,-0.320736
1359.257000,-0.339511
1362.257000,-0.347483
1365.257000,-0.369385
1368.257000,-0.384935
1371.256000,-0.397176
1374.256000,-0.417947
1377.256000,-0.433744
1380.256000,-0.451190
1383.256000,-0.467640
1386.256000,-0.483067
1389.254000,-0.501910
1392.254000,-0.519060
1395.255000,-0.539406
1398.255000,-0.554843
1401.255000,-0.575338
1404.253000,-0.597533
1407.253000,-0.617226
1410.253000,-0.636338
1413.253000,-0.655586
1416.254000,-0.674334
1419.254000,-0.695261
1422.252000,-0.715923
1425.252000,-0.733716
1428.252000,-0.756955
1431.252000,-0.777035
1434.252000,-0.795124
1437.251000,-0.813131
1440.251000,-0.835373
1443.251000,-0.854988
1446.251000,-0.875480
1449.251000,-0.895088
1452.249000,-0.915890
1455.249000,-0.934168
1458.249000,-0.953675
1461.250000,-0.971022
1464.250000,-0.993119
1467.248000,-1.010823
1470.248000,-1.030975
1473.248000,-1.049070
1476.248000,-1.068464
1479.248000,-1.087042
1482.249000,-1.106535
1485.247000,-1.124559
1488.247000,-1.142433
1491.247000,-1.163435
1494.247000,-1.177526
1497.247000,-1.197266
1500.245000,-1.214298
1503.246000,-1.232509
1506.246000,-1.250747
1509.246000,-1.268427
1512.246000,-1.285931
1515.244000,-1.299995
1518.244000,-1.317665
1521.245000,-1.333887
1524.243000,-1.350786
1527.244000,-1.367542
1530.244000,-1.380273
1533.244000,-1.395567
1536.244000,-1.411337
1539.242000,-1.424211
1542.242000,-1.438220
1545.242000,-1.449571
1548.243000,-1.457563
1551.243000,-1.470546
1554.241000,-1.483674
1557.241000,-1.490259
1560.241000,-1.505064
1563.241000,-1.516041
1566.241000,-1.524859
1569.242000,-1.531743
1572.240000,-1.540014
1575.240000,-1.549658
1578.240000,-1.556715
1581.240000,-1.565020
1584.240000,-1.569664
1587.238000,-1.576585
1590.238000,-1.577418
1593.239000,-1.582014
1596.239000,-1.586889
1599.239000,-1.591053
1602.239000,-1.588891
1605.237000,-1.592600
1608.237000,-1.576537
1611.237000,-1.570884
1614.238000,-1.583296
1617.238000,-1.600837
1620.236000,-1.591325
1623.236000,-1.582204
1626.236000,-1.596557
1629.236000,-1.595313
1632.236000,-1.578145
1635.235000,-1.593460
1638.235000,-1.577771
1641.235000,-1.577136
1644.235000,-1.571030
1647.235000,-1.577377
1650.235000,-1.573250
1653.233000,-1.559051
1656.233000,-1.576140
1659.234000,-1.552197
1662.234000,-1.546173
1665.234000,-1.536383
1668.232000,-1.529652
1671.232000,-1.522557
1674.232000,-1.517574
1677.232000,-1.508552
1680.233000,-1.502983
1683.231000,-1.492326
1686.231000,-1.485344
1689.231000,-1.473697
1692.231000,-1.461041
1695.231000,-1.451278
1698.229000,-1.442670
1701.230000,-1.443425
1704.230000,-1.440416
1707.230000,-1.422046
1710.230000,-1.395227
1713.230000,-1.382156
1716.228000,-1.370870
1719.228000,-1.360213
1722.228000,-1.345371
1725.229000,-1.328411
1728.229000,-1.314286
1731.227000,-1.299073
1734.227000,-1.284932
1737.227000,-1.276440
1740.227000,-1.256465
1743.227000,-1.246542
1746.226000,-1.227090
1749.226000,-1.217092
1752.227000,-1.200540
1755.225000,-1.186718
1758.225000,-1.167637
1761.225000,-1.157833
1764.225000,-1.137541
1767.226000,-1.124178
1770.226000,-1.106219
1773.224000,-1.088997
1776.224000,-1.073291
1779.224000,-1.057083
1782.224000,-1.041381
1785.223000,-1.027837
1788.223000,-1.013386
1791.224000,-1.001012
1794.222000,-0.991296
1797.222000,-0.963863
1800.222000,-0.947243
1803.221000,-0.929300
1806.221000,-0.914435
1809.221000,-0.897437
1812.222000,-0.884482
1815.222000,-0.865122
1818.220000,-0.848451
1821.220000,-0.833119
1824.220000,-0.815299
1827.220000,-0.799040
1830.220000,-0.786703
1833.221000,-0.771120
1836.219000,-0.757322
1839.219000,-0.741184
1842.219000,-0.726856
1845.219000,-0.712989
1848.219000,-0.701010
1851.217000,-0.684345
1854.217000,-0.675755
1857.218000,-0.658115
1860.218000,-0.640866
1863.218000,-0.633792
1866.216000,-0.615938
1869.216000,-0.600664
1872.216000,-0.596789
1875.216000,-0.602942
1878.217000,-0.565786
1881.217000,-0.556900
1884.215000,-0.551019
1887.215000,-0.541561
1890.215000,-0.535633
1893.215000,-0.542897
1896.215000,-0.510290
1899.214000,-0.501937
1902.214000,-0.515090
1905.214000,-0.486476
1908.214000,-0.483033
1911.214000,-0.475343
1914.212000,-0.467045
1917.212000,-0.459740
1920.212000,-0.459039
1923.213000,-0.471774
1926.213000,-0.449364
1929.211000,-0.448039
1932.211000,-0.451435
1935.211000,-0.447539
1938.211000,-0.450615
1941.211000,-0.431252
1944.212000,-0.430321
1947.210000,-0.436290
1950.210000,-0.431004
1953.210000,-0.420160
1956.210000,-0.446230
1959.210000,-0.445588
1962.208000,-0.432374
1965.209000,-0.427778
1968.209000,-0.449490
1971.209000,-0.446689
1974.209000,-0.438615
1977.209000,-0.431551
1980.207000,-0.450609
1983.207000,-0.459899
1986.207000,-0.447607
1989.208000,-0.445105
1992.208000,-0.470349
1995.206000,-0.475122
1998.206000,-0.475316
2001.206000,-0.478970
2004.206000,-0.488547
2007.206000,-0.496270
2010.205000,-0.501499
2013.205000,-0.506778
2016.205000,-0.512159
2019.205000,-0.522167
2022.205000,-0.530659
2025.203000,-0.538073
2028.203000,-0.547534
2031.204000,-0.555523
2034.204000,-0.558144
2037.204000,-0.568998
2040.204000,-0.580873
2043.202000,-0.594525
2046.202000,-0.602833
2049.202000,-0.612318
2052.202000,-0.624790
2055.203000,-0.634003
2058.201000,-0.644997
2061.201000,-0.655797
2064.201000,-0.667263
2067.201000,-0.675918
2070.201000,-0.690757
2073.201000,-0.701397
2076.200000,-0.714835
2079.200000,-0.724412
2082.200000,-0.738852
2085.200000,-0.749870
2088.200000,-0.762737
2091.198000,-0.777579
2094.198000,-0.788532
2097.199000,-0.800131
2100.199000,-0.812403
2103.199000,-0.825491
2106.197000,-0.837546
2109.197000,-0.852527
2112.197000,-0.866101
2115.197000,-0.877697
2118.197000,-0.890655
2121.198000,-0.905001
2124.196000,-0.920135
2127.196000,-0.927217
2130.196000,-0.945190
2133.196000,-0.956551
2136.196000,-0.971090
2139.194000,-0.986394
2142.195000,-0.993146
2145.195000,-1.011360
2148.195000,-1.024567
2151.195000,-1.035313
2154.193000,-1.050267
2157.193000,-1.063008
2160.193000,-1.078880
2163.194000,-1.090663
2166.194000,-1.104781
2169.192000,-1.116012
2172.193000,-1.128077
2175.193000,-1.139877
2178.191000,-1.153216
2181.191000,-1.164186
2184.191000,-1.175812
2187.192000,-1.188428
2190.192000,-1.201516
2193.190000,-1.212567
2196.190000,-1.223769
2199.190000,-1.233175
2202.190000,-1.245097
2205.190000,-1.256216
2208.191000,-1.267163
2211.189000,-1.277793
2214.189000,-1.289059
2217.189000,-1.295960
2220.189000,-1.306460
2223.189000,-1.313171
2226.187000,-1.324416
2229.188000,-1.331888
2232.188000,-1.343226
2235.188000,-1.350715
2238.188000,-1.360740
2241.186000,-1.364656
2244.186000,-1.373651
2247.186000,-1.378631
2250.186000,-1.385491
2253.187000,-1.393735
2256.185000,-1.402193
2259.185000,-1.406163
2262.185000,-1.411762
2265.185000,-1.414784
2268.185000,-1.419680
2271.185000,-1.419649
2274.184000,-1.427423
2277.184000,-1.434494
2280.184000,-1.435841
2283.184000,-1.424670
2286.183000,-1.422538
2289.183000,-1.444611
2292.183000,-1.444281
2295.184000,-1.443024
2298.182000,-1.440719
2301.182000,-1.446511
2304.182000,-1.445233
2307.182000,-1.444774
2310.182000,-1.445294
2313.180000,-1.453110
2316.180000,-1.445471
2319.181000,-1.438176
2322.181000,-1.417511
2325.181000,-1.416232
2328.181000,-1.432373
2331.179000,-1.431833
2334.179000,-1.416759
2337.179000,-1.432332
2340.180000,-1.414645
2343.180000,-1.409434
2346.178000,-1.418228
2349.178000,-1.395207
2352.178000,-1.403940
2355.178000,-1.388031
2358.178000,-1.378845
2361.177000,-1.376710
2364.177000,-1.382075
2367.177000,-1.368973
2370.177000,-1.361321
2373.177000,-1.354712
2376.175000,-1.349392
2379.175000,-1.363058
2382.175000,-1.329624
2385.176000,-1.327619
2388.176000,-1.312172
2391.176000,-1.304417
2394.174000,-1.299087
2397.174000,-1.287413
2400.174000,-1.290633
2403.174000,-1.271487
2406.174000,-1.269287
2409.174000,-1.251114
2412.174000,-1.245981
2415.174000,-1.235245
2418.172000,-1.222613
2421.172000,-1.237037
2424.172000,-1.205874
2427.173000,-1.203151
2430.173000,-1.187068
2433.171000,-1.177465
2436.171000,-1.167032
2439.171000,-1.156384
2442.171000,-1.152013
2445.171000,-1.132799
2448.171000,-1.125092
2451.170000,-1.113606
2454.171000,-1.110223
2457.169000,-1.090034
2460.169000,-1.085631
2463.169000,-1.069559
2466.169000,-1.063416
2469.169000,-1.048873
2472.168000,-1.041418
2475.168000,-1.031328
2478.168000,-1.023306
2481.168000,-1.009283
2484.168000,-0.997415
2487.168000,-0.985422
2490.166000,-0.993611
2493.167000,-0.960361
2496.166000,-0.952087
2499.166000,-0.946420
2502.166000,-0.930817
2505.166000,-0.918052
2508.166000,-0.913354
2511.166000,-0.898396
2514.164000,-0.889360
2517.165000,-0.881732
2520.165000,-0.867049
2523.165000,-0.856022
2526.165000,-0.846364
2529.163000,-0.855216
2532.163000,-0.834925
2535.163000,-0.816347
2538.164000,-0.803408
2541.164000,-0.801542
2544.162000,-0.791680
2547.162000,-0.784334
2550.162000,-0.775454
2553.162000,-0.785340
2556.162000,-0.758678
2559.163000,-0.755197
2562.161000,-0.743438
2565.161000,-0.737523
2568.161000,-0.732111
2571.161000,-0.720540
2574.161000,-0.721172
2577.159000,-0.711857
2580.159000,-0.724904
2583.160000,-0.693895
2586.160000,-0.698603
2589.160000,-0.707730
2592.158000,-0.679732
2595.158000,-0.688466
2598.158000,-0.683536
2601.158000,-0.673205
2604.159000,-0.666206
2607.159000,-0.674929
2610.157000,-0.677343
2613.157000,-0.653546
2616.157000,-0.670965
2619.157000,-0.645367
2622.157000,-0.649453
2625.156000,-0.645860
2628.156000,-0.662164
2631.156000,-0.665026
2634.156000,-0.659081
2637.156000,-0.641529
2640.154000,-0.653489
2643.154000,-0.658931
2646.155000,-0.645738
2649.155000,-0.666828
2652.155000,-0.644630
2655.155000,-0.667358
2658.153000,-0.670193
2661.153000,-0.671927
2664.153000,-0.649912
